
2 theta/deg	Intensity
   5.016711       449.0000    
   5.050134       417.0000    
   5.083556       428.0000    
   5.116979       437.0000    
   5.150402       412.0000    
   5.183824       447.0000    
   5.217247       396.0000    
   5.250669       389.0000    
   5.284091       402.0000    
   5.317514       430.0000    
   5.350936       405.0000    
   5.384359       407.0000    
   5.417782       405.0000    
   5.451204       449.0000    
   5.484627       438.0000    
   5.518049       415.0000    
   5.551472       410.0000    
   5.584894       390.0000    
   5.618317       451.0000    
   5.651740       393.0000    
   5.685162       429.0000    
   5.718585       415.0000    
   5.752007       421.0000    
   5.785429       417.0000    
   5.818852       402.0000    
   5.852275       414.0000    
   5.885697       420.0000    
   5.919120       380.0000    
   5.952542       393.0000    
   5.985965       430.0000    
   6.019387       400.0000    
   6.052810       385.0000    
   6.086232       374.0000    
   6.119655       363.0000    
   6.153078       384.0000    
   6.186500       399.0000    
   6.219923       403.0000    
   6.253345       423.0000    
   6.286767       384.0000    
   6.320190       366.0000    
   6.353613       368.0000    
   6.387035       378.0000    
   6.420458       398.0000    
   6.453880       413.0000    
   6.487303       424.0000    
   6.520725       411.0000    
   6.554148       386.0000    
   6.587570       398.0000    
   6.620993       399.0000    
   6.654416       395.0000    
   6.687838       392.0000    
   6.721261       393.0000    
   6.754683       400.0000    
   6.788106       399.0000    
   6.821528       390.0000    
   6.854951       382.0000    
   6.888373       410.0000    
   6.921796       418.0000    
   6.955218       365.0000    
   6.988641       405.0000    
   7.022063       394.0000    
   7.055486       363.0000    
   7.088908       392.0000    
   7.122331       395.0000    
   7.155754       377.0000    
   7.189176       429.0000    
   7.222599       369.0000    
   7.256021       346.0000    
   7.289444       353.0000    
   7.322866       402.0000    
   7.356289       397.0000    
   7.389711       397.0000    
   7.423134       376.0000    
   7.456556       386.0000    
   7.489979       387.0000    
   7.523401       360.0000    
   7.556824       405.0000    
   7.590247       407.0000    
   7.623669       357.0000    
   7.657092       397.0000    
   7.690514       367.0000    
   7.723937       392.0000    
   7.757360       369.0000    
   7.790782       391.0000    
   7.824204       407.0000    
   7.857627       431.0000    
   7.891049       442.0000    
   7.924472       402.0000    
   7.957894       416.0000    
   7.991317       424.0000    
   8.024739       417.0000    
   8.058163       430.0000    
   8.091585       428.0000    
   8.125008       397.0000    
   8.158430       382.0000    
   8.191853       396.0000    
   8.225275       397.0000    
   8.258698       376.0000    
   8.292120       380.0000    
   8.325542       443.0000    
   8.358965       402.0000    
   8.392387       396.0000    
   8.425810       391.0000    
   8.459232       403.0000    
   8.492655       399.0000    
   8.526077       389.0000    
   8.559500       401.0000    
   8.592922       399.0000    
   8.626345       402.0000    
   8.659768       431.0000    
   8.693191       425.0000    
   8.726613       396.0000    
   8.760036       396.0000    
   8.793458       406.0000    
   8.826880       364.0000    
   8.860303       446.0000    
   8.893725       396.0000    
   8.927148       410.0000    
   8.960570       398.0000    
   8.993993       399.0000    
   9.027416       414.0000    
   9.060839       399.0000    
   9.094261       422.0000    
   9.127684       394.0000    
   9.161106       395.0000    
   9.194529       387.0000    
   9.227951       437.0000    
   9.261374       372.0000    
   9.294796       375.0000    
   9.328218       385.0000    
   9.361641       448.0000    
   9.395063       431.0000    
   9.428486       398.0000    
   9.461908       420.0000    
   9.495331       402.0000    
   9.528753       382.0000    
   9.562176       411.0000    
   9.595598       421.0000    
   9.629021       394.0000    
   9.662444       445.0000    
   9.695867       406.0000    
   9.729289       379.0000    
   9.762712       404.0000    
   9.796134       411.0000    
   9.829556       425.0000    
   9.862979       414.0000    
   9.896402       394.0000    
   9.929825       421.0000    
   9.963247       422.0000    
   9.996670       401.0000    
   10.03009       404.0000    
   10.06351       413.0000    
   10.09694       399.0000    
   10.13036       399.0000    
   10.16378       418.0000    
   10.19720       406.0000    
   10.23063       433.0000    
   10.26405       402.0000    
   10.29747       434.0000    
   10.33089       429.0000    
   10.36432       396.0000    
   10.39774       426.0000    
   10.43116       412.0000    
   10.46458       428.0000    
   10.49801       401.0000    
   10.53143       399.0000    
   10.56485       399.0000    
   10.59827       432.0000    
   10.63170       444.0000    
   10.66512       431.0000    
   10.69854       414.0000    
   10.73197       388.0000    
   10.76539       425.0000    
   10.79881       452.0000    
   10.83223       419.0000    
   10.86566       452.0000    
   10.89908       403.0000    
   10.93250       412.0000    
   10.96592       426.0000    
   10.99935       394.0000    
   11.03277       406.0000    
   11.06619       430.0000    
   11.09961       422.0000    
   11.13304       452.0000    
   11.16646       482.0000    
   11.19988       468.0000    
   11.23330       416.0000    
   11.26673       423.0000    
   11.30015       460.0000    
   11.33357       477.0000    
   11.36699       423.0000    
   11.40042       417.0000    
   11.43384       461.0000    
   11.46726       485.0000    
   11.50068       440.0000    
   11.53411       418.0000    
   11.56753       466.0000    
   11.60095       414.0000    
   11.63437       484.0000    
   11.66780       463.0000    
   11.70122       457.0000    
   11.73464       412.0000    
   11.76806       440.0000    
   11.80149       449.0000    
   11.83491       473.0000    
   11.86833       431.0000    
   11.90175       475.0000    
   11.93518       445.0000    
   11.96860       473.0000    
   12.00202       481.0000    
   12.03544       473.0000    
   12.06887       427.0000    
   12.10229       461.0000    
   12.13571       436.0000    
   12.16913       442.0000    
   12.20256       411.0000    
   12.23598       436.0000    
   12.26940       473.0000    
   12.30282       500.0000    
   12.33625       425.0000    
   12.36967       454.0000    
   12.40309       440.0000    
   12.43651       450.0000    
   12.46994       437.0000    
   12.50336       431.0000    
   12.53678       441.0000    
   12.57020       475.0000    
   12.60363       452.0000    
   12.63705       440.0000    
   12.67047       450.0000    
   12.70389       425.0000    
   12.73732       445.0000    
   12.77074       445.0000    
   12.80416       458.0000    
   12.83759       485.0000    
   12.87101       441.0000    
   12.90443       486.0000    
   12.93785       470.0000    
   12.97128       443.0000    
   13.00470       468.0000    
   13.03812       443.0000    
   13.07154       426.0000    
   13.10497       492.0000    
   13.13839       443.0000    
   13.17181       515.0000    
   13.20523       482.0000    
   13.23866       464.0000    
   13.27208       466.0000    
   13.30550       450.0000    
   13.33892       433.0000    
   13.37235       466.0000    
   13.40577       464.0000    
   13.43919       468.0000    
   13.47261       464.0000    
   13.50604       441.0000    
   13.53946       450.0000    
   13.57288       455.0000    
   13.60630       422.0000    
   13.63973       451.0000    
   13.67315       439.0000    
   13.70657       449.0000    
   13.73999       478.0000    
   13.77342       433.0000    
   13.80684       404.0000    
   13.84026       500.0000    
   13.87368       449.0000    
   13.90711       418.0000    
   13.94053       487.0000    
   13.97395       459.0000    
   14.00737       457.0000    
   14.04080       438.0000    
   14.07422       434.0000    
   14.10764       463.0000    
   14.14106       425.0000    
   14.17449       449.0000    
   14.20791       459.0000    
   14.24133       441.0000    
   14.27475       450.0000    
   14.30818       446.0000    
   14.34160       473.0000    
   14.37502       444.0000    
   14.40844       487.0000    
   14.44187       430.0000    
   14.47529       448.0000    
   14.50871       423.0000    
   14.54213       488.0000    
   14.57556       431.0000    
   14.60898       429.0000    
   14.64240       448.0000    
   14.67582       428.0000    
   14.70925       451.0000    
   14.74267       442.0000    
   14.77609       418.0000    
   14.80951       446.0000    
   14.84294       456.0000    
   14.87636       465.0000    
   14.90978       399.0000    
   14.94320       447.0000    
   14.97663       439.0000    
   15.01005       460.0000    
   15.04347       452.0000    
   15.07689       457.0000    
   15.11032       439.0000    
   15.14374       465.0000    
   15.17716       411.0000    
   15.21058       449.0000    
   15.24401       471.0000    
   15.27743       457.0000    
   15.31085       406.0000    
   15.34428       451.0000    
   15.37770       449.0000    
   15.41112       427.0000    
   15.44454       436.0000    
   15.47797       444.0000    
   15.51139       447.0000    
   15.54481       460.0000    
   15.57823       461.0000    
   15.61166       487.0000    
   15.64508       464.0000    
   15.67850       471.0000    
   15.71192       442.0000    
   15.74535       425.0000    
   15.77877       419.0000    
   15.81219       443.0000    
   15.84561       440.0000    
   15.87904       456.0000    
   15.91246       470.0000    
   15.94588       451.0000    
   15.97930       468.0000    
   16.01273       419.0000    
   16.04615       470.0000    
   16.07957       433.0000    
   16.11299       445.0000    
   16.14642       481.0000    
   16.17984       418.0000    
   16.21326       436.0000    
   16.24669       472.0000    
   16.28011       459.0000    
   16.31353       483.0000    
   16.34695       433.0000    
   16.38037       412.0000    
   16.41380       477.0000    
   16.44722       478.0000    
   16.48064       457.0000    
   16.51406       446.0000    
   16.54749       431.0000    
   16.58091       444.0000    
   16.61433       454.0000    
   16.64775       436.0000    
   16.68118       427.0000    
   16.71460       421.0000    
   16.74802       457.0000    
   16.78144       406.0000    
   16.81487       460.0000    
   16.84829       460.0000    
   16.88171       493.0000    
   16.91513       481.0000    
   16.94856       429.0000    
   16.98198       458.0000    
   17.01540       456.0000    
   17.04882       461.0000    
   17.08225       473.0000    
   17.11567       459.0000    
   17.14909       472.0000    
   17.18251       432.0000    
   17.21594       459.0000    
   17.24936       478.0000    
   17.28278       471.0000    
   17.31620       454.0000    
   17.34963       410.0000    
   17.38305       440.0000    
   17.41647       477.0000    
   17.44989       484.0000    
   17.48332       472.0000    
   17.51674       447.0000    
   17.55016       432.0000    
   17.58358       422.0000    
   17.61701       474.0000    
   17.65043       416.0000    
   17.68385       473.0000    
   17.71728       428.0000    
   17.75070       461.0000    
   17.78412       450.0000    
   17.81754       463.0000    
   17.85097       440.0000    
   17.88439       432.0000    
   17.91781       442.0000    
   17.95123       430.0000    
   17.98466       448.0000    
   18.01808       416.0000    
   18.05150       434.0000    
   18.08492       466.0000    
   18.11835       463.0000    
   18.15177       389.0000    
   18.18519       410.0000    
   18.21861       427.0000    
   18.25204       437.0000    
   18.28546       477.0000    
   18.31888       465.0000    
   18.35230       476.0000    
   18.38573       426.0000    
   18.41915       422.0000    
   18.45257       468.0000    
   18.48599       434.0000    
   18.51942       470.0000    
   18.55284       464.0000    
   18.58626       463.0000    
   18.61968       452.0000    
   18.65311       463.0000    
   18.68653       469.0000    
   18.71995       451.0000    
   18.75337       447.0000    
   18.78680       466.0000    
   18.82022       436.0000    
   18.85364       474.0000    
   18.88706       427.0000    
   18.92049       469.0000    
   18.95391       464.0000    
   18.98733       431.0000    
   19.02075       483.0000    
   19.05418       423.0000    
   19.08760       487.0000    
   19.12102       468.0000    
   19.15445       442.0000    
   19.18787       437.0000    
   19.22129       464.0000    
   19.25471       427.0000    
   19.28814       451.0000    
   19.32156       456.0000    
   19.35498       456.0000    
   19.38840       451.0000    
   19.42183       421.0000    
   19.45525       443.0000    
   19.48867       454.0000    
   19.52209       455.0000    
   19.55552       464.0000    
   19.58894       446.0000    
   19.62236       447.0000    
   19.65578       405.0000    
   19.68921       472.0000    
   19.72263       445.0000    
   19.75605       443.0000    
   19.78947       426.0000    
   19.82290       443.0000    
   19.85632       398.0000    
   19.88974       456.0000    
   19.92316       394.0000    
   19.95658       410.0000    
   19.99001       446.0000    
   20.02343       445.0000    
   20.05685       475.0000    
   20.09027       409.0000    
   20.12370       483.0000    
   20.15712       441.0000    
   20.19054       439.0000    
   20.22396       467.0000    
   20.25739       449.0000    
   20.29081       447.0000    
   20.32423       449.0000    
   20.35765       405.0000    
   20.39108       449.0000    
   20.42450       457.0000    
   20.45792       463.0000    
   20.49135       439.0000    
   20.52477       447.0000    
   20.55819       405.0000    
   20.59161       444.0000    
   20.62504       459.0000    
   20.65846       415.0000    
   20.69188       433.0000    
   20.72530       445.0000    
   20.75873       466.0000    
   20.79215       445.0000    
   20.82557       431.0000    
   20.85899       444.0000    
   20.89242       430.0000    
   20.92584       458.0000    
   20.95926       424.0000    
   20.99268       423.0000    
   21.02611       426.0000    
   21.05953       456.0000    
   21.09295       439.0000    
   21.12637       454.0000    
   21.15980       456.0000    
   21.19322       415.0000    
   21.22664       415.0000    
   21.26006       399.0000    
   21.29349       390.0000    
   21.32691       437.0000    
   21.36033       443.0000    
   21.39375       421.0000    
   21.42718       443.0000    
   21.46060       424.0000    
   21.49402       458.0000    
   21.52744       427.0000    
   21.56087       404.0000    
   21.59429       453.0000    
   21.62771       416.0000    
   21.66114       439.0000    
   21.69456       424.0000    
   21.72798       474.0000    
   21.76140       446.0000    
   21.79483       422.0000    
   21.82825       439.0000    
   21.86167       415.0000    
   21.89509       394.0000    
   21.92852       424.0000    
   21.96194       429.0000    
   21.99536       450.0000    
   22.02878       449.0000    
   22.06221       442.0000    
   22.09563       437.0000    
   22.12905       410.0000    
   22.16247       428.0000    
   22.19590       441.0000    
   22.22932       447.0000    
   22.26274       459.0000    
   22.29616       422.0000    
   22.32959       422.0000    
   22.36301       464.0000    
   22.39643       409.0000    
   22.42985       477.0000    
   22.46328       442.0000    
   22.49670       449.0000    
   22.53012       473.0000    
   22.56354       437.0000    
   22.59697       437.0000    
   22.63039       441.0000    
   22.66381       417.0000    
   22.69724       459.0000    
   22.73066       409.0000    
   22.76408       440.0000    
   22.79750       433.0000    
   22.83092       446.0000    
   22.86435       414.0000    
   22.89777       469.0000    
   22.93119       404.0000    
   22.96461       414.0000    
   22.99804       417.0000    
   23.03146       416.0000    
   23.06488       437.0000    
   23.09830       443.0000    
   23.13173       438.0000    
   23.16515       410.0000    
   23.19857       432.0000    
   23.23199       403.0000    
   23.26542       428.0000    
   23.29884       446.0000    
   23.33226       420.0000    
   23.36568       405.0000    
   23.39911       403.0000    
   23.43253       433.0000    
   23.46595       422.0000    
   23.49937       479.0000    
   23.53279       444.0000    
   23.56622       438.0000    
   23.59964       456.0000    
   23.63306       421.0000    
   23.66649       436.0000    
   23.69991       394.0000    
   23.73333       437.0000    
   23.76675       451.0000    
   23.80018       445.0000    
   23.83360       420.0000    
   23.86702       458.0000    
   23.90044       427.0000    
   23.93387       480.0000    
   23.96729       446.0000    
   24.00071       437.0000    
   24.03413       430.0000    
   24.06756       445.0000    
   24.10098       433.0000    
   24.13440       448.0000    
   24.16782       441.0000    
   24.20125       406.0000    
   24.23467       454.0000    
   24.26809       442.0000    
   24.30151       437.0000    
   24.33494       427.0000    
   24.36836       467.0000    
   24.40178       461.0000    
   24.43520       443.0000    
   24.46863       451.0000    
   24.50205       449.0000    
   24.53547       453.0000    
   24.56890       418.0000    
   24.60232       446.0000    
   24.63574       425.0000    
   24.66916       425.0000    
   24.70259       421.0000    
   24.73601       466.0000    
   24.76943       436.0000    
   24.80285       440.0000    
   24.83628       432.0000    
   24.86970       443.0000    
   24.90312       424.0000    
   24.93654       411.0000    
   24.96997       424.0000    
   25.00339       414.0000    
   25.03681       437.0000    
   25.07023       422.0000    
   25.10366       427.0000    
   25.13708       444.0000    
   25.17050       418.0000    
   25.20392       468.0000    
   25.23735       422.0000    
   25.27077       404.0000    
   25.30419       400.0000    
   25.33761       455.0000    
   25.37104       432.0000    
   25.40446       454.0000    
   25.43788       443.0000    
   25.47131       437.0000    
   25.50473       465.0000    
   25.53815       455.0000    
   25.57157       388.0000    
   25.60500       399.0000    
   25.63842       409.0000    
   25.67184       406.0000    
   25.70526       426.0000    
   25.73869       428.0000    
   25.77211       421.0000    
   25.80553       452.0000    
   25.83895       456.0000    
